/*
 *  Tabulated refractive index data for ice, wavelengths in um
 *
 *	Warren, S. G., Optical constants of ice from the ultraviolet
 *	to the microwave, Applied Optics, 23, 1206-1225, 1984.
 */

#define	N_DX	468		/* # wavelengths w/o temp dependence	*/
#define	N_DXT	62		/* # wavelengths w temp dependence	*/
#define N_TEMP	4		/* # temperatures			*/

#define WAVETHRESH	1.67e+2	/* wavelengths (um) above temp dep	*/

static double	tval[N_TEMP] = {
	-60., -20., -5., -1.
};

/*
 * Table below is for wavelengths 0.043 - 167 um, which have no
 * temperature dependence.
 * Columns are: wavelength (um), real part, imaginary part
 */

static double	x[3*N_DX] = {
	4.430e-2, 0.83441, 1.640e-1,
	4.510e-2, 0.83676, 1.730e-1,
	4.590e-2, 0.83729, 1.830e-1,
	4.680e-2, 0.83771, 1.950e-1,
	4.770e-2, 0.83827, 2.080e-1,
	4.860e-2, 0.84038, 2.230e-1,
	4.960e-2, 0.84719, 2.400e-1,
	5.060e-2, 0.85522, 2.500e-1,
	5.170e-2, 0.86047, 2.590e-1,
	5.280e-2, 0.86248, 2.680e-1,

	5.390e-2, 0.86157, 2.790e-1,
	5.510e-2, 0.86093, 2.970e-1,
	5.640e-2, 0.86419, 3.190e-1,
	5.770e-2, 0.86916, 3.400e-1,
	5.900e-2, 0.87764, 3.660e-1,
	6.050e-2, 0.89296, 3.920e-1,
	6.200e-2, 0.91041, 4.160e-1,
	6.360e-2, 0.93089, 4.400e-1,
	6.530e-2, 0.95373, 4.640e-1,
	6.700e-2, 0.98188, 4.920e-1,

	6.890e-2, 1.02334, 5.170e-1,
	7.080e-2, 1.06735, 5.280e-1,
	7.290e-2, 1.11197, 5.330e-1,
	7.380e-2, 1.13134, 5.340e-1,
	7.510e-2, 1.15747, 5.310e-1,
	7.750e-2, 1.20045, 5.240e-1,
	8.000e-2, 1.23840, 5.100e-1,
	8.270e-2, 1.27325, 5.000e-1,
	8.550e-2, 1.32157, 4.990e-1,
	8.860e-2, 1.38958, 4.680e-1,

	9.180e-2, 1.41644, 3.800e-1,
	9.300e-2, 1.40906, 3.600e-1,
	9.540e-2, 1.40063, 3.390e-1,
	9.920e-2, 1.40169, 3.180e-1,
	1.033e-1, 1.40934, 2.910e-1,
	1.078e-1, 1.40221, 2.510e-1,
	1.100e-1, 1.39240, 2.440e-1,
	1.127e-1, 1.38424, 2.390e-1,
	1.140e-1, 1.38075, 2.390e-1,
	1.181e-1, 1.38186, 2.440e-1,

	1.210e-1, 1.39634, 2.470e-1,
	1.240e-1, 1.40918, 2.240e-1,
	1.272e-1, 1.40256, 1.950e-1,
	1.295e-1, 1.38013, 1.740e-1,
	1.305e-1, 1.36303, 1.720e-1,
	1.319e-1, 1.34144, 1.800e-1,
	1.333e-1, 1.32377, 1.940e-1,
	1.348e-1, 1.30605, 2.130e-1,
	1.362e-1, 1.29054, 2.430e-1,
	1.370e-1, 1.28890, 2.710e-1,

	1.378e-1, 1.28931, 2.890e-1,
	1.387e-1, 1.30190, 3.340e-1,
	1.393e-1, 1.32025, 3.440e-1,
	1.409e-1, 1.36302, 3.820e-1,
	1.425e-1, 1.41872, 4.010e-1,
	1.435e-1, 1.45834, 4.065e-1,
	1.442e-1, 1.49028, 4.050e-1,
	1.450e-1, 1.52128, 3.890e-1,
	1.459e-1, 1.55376, 3.770e-1,
	1.468e-1, 1.57782, 3.450e-1,

	1.476e-1, 1.59636, 3.320e-1,
	1.480e-1, 1.60652, 3.150e-1,
	1.485e-1, 1.61172, 2.980e-1,
	1.494e-1, 1.61919, 2.740e-1,
	1.512e-1, 1.62522, 2.280e-1,
	1.531e-1, 1.63404, 1.980e-1,
	1.540e-1, 1.63689, 1.720e-1,
	1.550e-1, 1.63833, 1.560e-1,
	1.569e-1, 1.63720, 1.100e-1,
	1.580e-1, 1.63233, 8.300e-2,

	1.589e-1, 1.62222, 5.800e-2,
	1.610e-1, 1.58269, 2.200e-2,
	1.625e-1, 1.55635, 1.000e-2,
	1.648e-1, 1.52453, 3.000e-3,
	1.669e-1, 1.50320, 1.000e-3,
	1.692e-1, 1.48498, 3.000e-4,
	1.713e-1, 1.47226, 1.000e-4,
	1.737e-1, 1.45991, 3.000e-5,
	1.757e-1, 1.45115, 1.000e-5,
	1.779e-1, 1.44272, 3.000e-6,

	1.802e-1, 1.43498, 1.000e-6,
	1.809e-1, 1.43280, 7.000e-7,
	1.821e-1, 1.42924, 4.000e-7,
	1.833e-1, 1.42602, 2.000e-7,
	1.843e-1, 1.42323, 1.000e-7,
	1.850e-1, 1.42143, 6.377e-8,
	1.860e-1, 1.41897, 3.750e-8,
	1.870e-1, 1.41660, 2.800e-8,
	1.880e-1, 1.41434, 2.400e-8,
	1.890e-1, 1.41216, 2.200e-8,

	1.900e-1, 1.41006, 1.900e-8,
	1.910e-1, 1.40805, 1.750e-8,
	1.930e-1, 1.40423, 1.640e-8,
	1.950e-1, 1.40067, 1.590e-8,
	2.100e-1, 1.38004, 1.325e-8,
	2.500e-1, 1.35085, 8.623e-9,
	3.000e-1, 1.33394, 5.504e-9,
	3.500e-1, 1.32492, 3.765e-9,
	4.000e-1, 1.31940, 2.710e-9,
	4.100e-1, 1.31854, 2.510e-9,

	4.200e-1, 1.31775, 2.260e-9,
	4.300e-1, 1.31702, 2.080e-9,
	4.400e-1, 1.31633, 1.910e-9,
	4.500e-1, 1.31569, 1.540e-9,
	4.600e-1, 1.31509, 1.530e-9,
	4.700e-1, 1.31452, 1.550e-9,
	4.800e-1, 1.31399, 1.640e-9,
	4.900e-1, 1.31349, 1.780e-9,
	5.000e-1, 1.31302, 1.910e-9,
	5.100e-1, 1.31257, 2.140e-9,

	5.200e-1, 1.31215, 2.260e-9,
	5.300e-1, 1.31175, 2.540e-9,
	5.400e-1, 1.31136, 2.930e-9,
	5.500e-1, 1.31099, 3.110e-9,
	5.600e-1, 1.31064, 3.290e-9,
	5.700e-1, 1.31031, 3.520e-9,
	5.800e-1, 1.30999, 4.040e-9,
	5.900e-1, 1.30968, 4.880e-9,
	6.000e-1, 1.30938, 5.730e-9,
	6.100e-1, 1.30909, 6.890e-9,

	6.200e-1, 1.30882, 8.580e-9,
	6.300e-1, 1.30855, 1.040e-8,
	6.400e-1, 1.30829, 1.220e-8,
	6.500e-1, 1.30804, 1.430e-8,
	6.600e-1, 1.30780, 1.660e-8,
	6.700e-1, 1.30756, 1.890e-8,
	6.800e-1, 1.30733, 2.090e-8,
	6.900e-1, 1.30710, 2.400e-8,
	7.000e-1, 1.30688, 2.900e-8,
	7.100e-1, 1.30667, 3.440e-8,

	7.200e-1, 1.30646, 4.030e-8,
	7.300e-1, 1.30625, 4.300e-8,
	7.400e-1, 1.30605, 4.920e-8,
	7.500e-1, 1.30585, 5.870e-8,
	7.600e-1, 1.30566, 7.080e-8,
	7.700e-1, 1.30547, 8.580e-8,
	7.800e-1, 1.30528, 1.020e-7,
	7.900e-1, 1.30509, 1.180e-7,
	8.000e-1, 1.30491, 1.340e-7,
	8.100e-1, 1.30473, 1.400e-7,

	8.200e-1, 1.30455, 1.430e-7,
	8.300e-1, 1.30437, 1.450e-7,
	8.400e-1, 1.30419, 1.510e-7,
	8.500e-1, 1.30402, 1.830e-7,
	8.600e-1, 1.30385, 2.150e-7,
	8.700e-1, 1.30367, 2.650e-7,
	8.800e-1, 1.30350, 3.350e-7,
	8.900e-1, 1.30333, 3.920e-7,
	9.000e-1, 1.30316, 4.200e-7,
	9.100e-1, 1.30299, 4.440e-7,

	9.200e-1, 1.30283, 4.740e-7,
	9.300e-1, 1.30266, 5.110e-7,
	9.400e-1, 1.30249, 5.530e-7,
	9.500e-1, 1.30232, 6.020e-7,
	9.600e-1, 1.30216, 7.550e-7,
	9.700e-1, 1.30199, 9.260e-7,
	9.800e-1, 1.30182, 1.120e-6,
	9.900e-1, 1.30166, 1.330e-6,
	1.000e+0, 1.30149, 1.620e-6,
	1.010e+0, 1.30132, 2.000e-6,

	1.020e+0, 1.30116, 2.250e-6,
	1.030e+0, 1.30099, 2.330e-6,
	1.040e+0, 1.30082, 2.330e-6,
	1.050e+0, 1.30065, 2.170e-6,
	1.060e+0, 1.30048, 1.960e-6,
	1.070e+0, 1.30031, 1.810e-6,
	1.080e+0, 1.30014, 1.740e-6,
	1.090e+0, 1.29997, 1.730e-6,
	1.100e+0, 1.29979, 1.700e-6,
	1.110e+0, 1.29962, 1.760e-6,

	1.120e+0, 1.29945, 1.820e-6,
	1.130e+0, 1.29927, 2.040e-6,
	1.140e+0, 1.29909, 2.250e-6,
	1.150e+0, 1.29891, 2.290e-6,
	1.160e+0, 1.29873, 3.040e-6,
	1.170e+0, 1.29855, 3.840e-6,
	1.180e+0, 1.29837, 4.770e-6,
	1.190e+0, 1.29818, 5.760e-6,
	1.200e+0, 1.29800, 6.710e-6,
	1.210e+0, 1.29781, 8.660e-6,

	1.220e+0, 1.29762, 1.020e-5,
	1.230e+0, 1.29743, 1.130e-5,
	1.240e+0, 1.29724, 1.220e-5,
	1.250e+0, 1.29705, 1.290e-5,
	1.260e+0, 1.29686, 1.320e-5,
	1.270e+0, 1.29666, 1.350e-5,
	1.280e+0, 1.29646, 1.330e-5,
	1.290e+0, 1.29626, 1.320e-5,
	1.300e+0, 1.29605, 1.320e-5,
	1.310e+0, 1.29584, 1.310e-5,

	1.320e+0, 1.29563, 1.320e-5,
	1.330e+0, 1.29542, 1.320e-5,
	1.340e+0, 1.29521, 1.340e-5,
	1.350e+0, 1.29499, 1.390e-5,
	1.360e+0, 1.29476, 1.420e-5,
	1.370e+0, 1.29453, 1.480e-5,
	1.380e+0, 1.29430, 1.580e-5,
	1.390e+0, 1.29406, 1.740e-5,
	1.400e+0, 1.29381, 1.980e-5,
	1.410e+0, 1.29355, 2.500e-5,

	1.420e+0, 1.29327, 5.400e-5,
	1.430e+0, 1.29299, 1.040e-4,
	1.440e+0, 1.29272, 2.030e-4,
	1.449e+0, 1.29252, 2.708e-4,
	1.460e+0, 1.29228, 3.511e-4,
	1.471e+0, 1.29205, 4.299e-4,
	1.481e+0, 1.29186, 5.181e-4,
	1.493e+0, 1.29167, 5.855e-4,
	1.504e+0, 1.29150, 5.899e-4,
	1.515e+0, 1.29130, 5.635e-4,

	1.527e+0, 1.29106, 5.480e-4,
	1.538e+0, 1.29083, 5.266e-4,
	1.563e+0, 1.29025, 4.394e-4,
	1.587e+0, 1.28962, 3.701e-4,
	1.613e+0, 1.28891, 3.372e-4,
	1.650e+0, 1.28784, 2.410e-4,
	1.680e+0, 1.28689, 1.890e-4,
	1.700e+0, 1.28623, 1.660e-4,
	1.730e+0, 1.28521, 1.450e-4,
	1.760e+0, 1.28413, 1.280e-4,

	1.800e+0, 1.28261, 1.030e-4,
	1.830e+0, 1.28137, 8.600e-5,
	1.840e+0, 1.28093, 8.220e-5,
	1.850e+0, 1.28047, 8.030e-5,
	1.855e+0, 1.28022, 8.500e-5,
	1.860e+0, 1.27998, 9.900e-5,
	1.870e+0, 1.27948, 1.500e-4,
	1.890e+0, 1.27849, 2.950e-4,
	1.905e+0, 1.27774, 4.687e-4,
	1.923e+0, 1.27691, 7.615e-4,

	1.942e+0, 1.27610, 1.010e-3,
	1.961e+0, 1.27535, 1.313e-3,
	1.980e+0, 1.27471, 1.539e-3,
	2.000e+0, 1.27404, 1.588e-3,
	2.020e+0, 1.27329, 1.540e-3,
	2.041e+0, 1.27240, 1.412e-3,
	2.062e+0, 1.27139, 1.244e-3,
	2.083e+0, 1.27029, 1.068e-3,
	2.105e+0, 1.26901, 8.414e-4,
	2.130e+0, 1.26736, 5.650e-4,

	2.150e+0, 1.26591, 4.320e-4,
	2.170e+0, 1.26441, 3.500e-4,
	2.190e+0, 1.26284, 2.870e-4,
	2.220e+0, 1.26036, 2.210e-4,
	2.240e+0, 1.25860, 2.030e-4,
	2.245e+0, 1.25815, 2.010e-4,
	2.250e+0, 1.25768, 2.030e-4,
	2.260e+0, 1.25675, 2.140e-4,
	2.270e+0, 1.25579, 2.320e-4,
	2.290e+0, 1.25383, 2.890e-4,

	2.310e+0, 1.25179, 3.810e-4,
	2.330e+0, 1.24967, 4.620e-4,
	2.350e+0, 1.24745, 5.480e-4,
	2.370e+0, 1.24512, 6.180e-4,
	2.390e+0, 1.24266, 6.800e-4,
	2.410e+0, 1.24004, 7.300e-4,
	2.430e+0, 1.23725, 7.820e-4,
	2.460e+0, 1.23270, 8.480e-4,
	2.500e+0, 1.22583, 9.250e-4,
	2.520e+0, 1.22198, 9.200e-4,

	2.550e+0, 1.21548, 8.920e-4,
	2.565e+0, 1.21184, 8.700e-4,
	2.580e+0, 1.20790, 8.900e-4,
	2.590e+0, 1.20507, 9.300e-4,
	2.600e+0, 1.20209, 1.010e-3,
	2.620e+0, 1.19566, 1.350e-3,
	2.675e+0, 1.17411, 3.420e-3,
	2.725e+0, 1.14734, 7.920e-3,
	2.778e+0, 1.10766, 2.000e-2,
	2.817e+0, 1.06739, 3.800e-2,

	2.833e+0, 1.04762, 5.200e-2,
	2.849e+0, 1.02650, 6.800e-2,
	2.865e+0, 1.00357, 9.230e-2,
	2.882e+0, 0.98197, 1.270e-1,
	2.899e+0, 0.96503, 1.690e-1,
	2.915e+0, 0.95962, 2.210e-1,
	2.933e+0, 0.97269, 2.760e-1,
	2.950e+0, 0.99172, 3.120e-1,
	2.967e+0, 1.00668, 3.470e-1,
	2.985e+0, 1.02186, 3.880e-1,

	3.003e+0, 1.04270, 4.380e-1,
	3.021e+0, 1.07597, 4.930e-1,
	3.040e+0, 1.12954, 5.540e-1,
	3.058e+0, 1.21267, 6.120e-1,
	3.077e+0, 1.32509, 6.250e-1,
	3.096e+0, 1.42599, 5.930e-1,
	3.115e+0, 1.49656, 5.390e-1,
	3.135e+0, 1.55095, 4.910e-1,
	3.155e+0, 1.59988, 4.380e-1,
	3.175e+0, 1.63631, 3.720e-1,

	3.195e+0, 1.65024, 3.000e-1,
	3.215e+0, 1.64278, 2.380e-1,
	3.236e+0, 1.62691, 1.930e-1,
	3.257e+0, 1.61284, 1.580e-1,
	3.279e+0, 1.59245, 1.210e-1,
	3.300e+0, 1.57329, 1.030e-1,
	3.322e+0, 1.55770, 8.360e-2,
	3.345e+0, 1.54129, 6.680e-2,
	3.367e+0, 1.52654, 5.400e-2,
	3.390e+0, 1.51139, 4.220e-2,

	3.413e+0, 1.49725, 3.420e-2,
	3.436e+0, 1.48453, 2.740e-2,
	3.460e+0, 1.47209, 2.200e-2,
	3.484e+0, 1.46125, 1.860e-2,
	3.509e+0, 1.45132, 1.520e-2,
	3.534e+0, 1.44215, 1.260e-2,
	3.559e+0, 1.43366, 1.060e-2,
	3.624e+0, 1.41553, 8.020e-3,
	3.732e+0, 1.39417, 6.850e-3,
	3.775e+0, 1.38732, 6.600e-3,

	3.847e+0, 1.37735, 6.960e-3,
	3.969e+0, 1.36448, 9.160e-3,
	4.099e+0, 1.35414, 1.110e-2,
	4.239e+0, 1.34456, 1.450e-2,
	4.348e+0, 1.33882, 2.000e-2,
	4.387e+0, 1.33807, 2.300e-2,
	4.444e+0, 1.33847, 2.600e-2,
	4.505e+0, 1.34053, 2.900e-2,
	4.547e+0, 1.34287, 2.930e-2,
	4.560e+0, 1.34418, 3.000e-2,

	4.580e+0, 1.34634, 2.850e-2,
	4.719e+0, 1.34422, 1.730e-2,
	4.904e+0, 1.33453, 1.290e-2,
	5.000e+0, 1.32897, 1.200e-2,
	5.100e+0, 1.32333, 1.250e-2,
	5.200e+0, 1.31800, 1.340e-2,
	5.263e+0, 1.31432, 1.400e-2,
	5.400e+0, 1.30623, 1.750e-2,
	5.556e+0, 1.29722, 2.400e-2,
	5.714e+0, 1.28898, 3.500e-2,

	5.747e+0, 1.28730, 3.800e-2,
	5.780e+0, 1.28603, 4.200e-2,
	5.814e+0, 1.28509, 4.600e-2,
	5.848e+0, 1.28535, 5.200e-2,
	5.882e+0, 1.28813, 5.700e-2,
	6.061e+0, 1.30156, 6.900e-2,
	6.135e+0, 1.30901, 7.000e-2,
	6.250e+0, 1.31720, 6.700e-2,
	6.289e+0, 1.31893, 6.500e-2,
	6.329e+0, 1.32039, 6.400e-2,

	6.369e+0, 1.32201, 6.200e-2,
	6.410e+0, 1.32239, 5.900e-2,
	6.452e+0, 1.32149, 5.700e-2,
	6.494e+0, 1.32036, 5.600e-2,
	6.579e+0, 1.31814, 5.500e-2,
	6.667e+0, 1.31705, 5.700e-2,
	6.757e+0, 1.31807, 5.800e-2,
	6.897e+0, 1.31953, 5.700e-2,
	7.042e+0, 1.31933, 5.500e-2,
	7.143e+0, 1.31896, 5.500e-2,

	7.246e+0, 1.31909, 5.400e-2,
	7.353e+0, 1.31796, 5.200e-2,
	7.463e+0, 1.31631, 5.200e-2,
	7.576e+0, 1.31542, 5.200e-2,
	7.692e+0, 1.31540, 5.200e-2,
	7.812e+0, 1.31552, 5.000e-2,
	7.937e+0, 1.31455, 4.700e-2,
	8.065e+0, 1.31193, 4.300e-2,
	8.197e+0, 1.30677, 3.900e-2,
	8.333e+0, 1.29934, 3.700e-2,

	8.475e+0, 1.29253, 3.900e-2,
	8.696e+0, 1.28389, 4.000e-2,
	8.929e+0, 1.27401, 4.200e-2,
	9.091e+0, 1.26724, 4.400e-2,
	9.259e+0, 1.25990, 4.500e-2,
	9.524e+0, 1.24510, 4.600e-2,
	9.804e+0, 1.22241, 4.700e-2,
	1.000e+1, 1.19913, 5.100e-2,
	1.020e+1, 1.17150, 6.500e-2,
	1.031e+1, 1.15528, 7.500e-2,

	1.042e+1, 1.13700, 8.800e-2,
	1.053e+1, 1.11808, 1.080e-1,
	1.064e+1, 1.10134, 1.340e-1,
	1.075e+1, 1.09083, 1.680e-1,
	1.087e+1, 1.08734, 2.040e-1,
	1.100e+1, 1.09254, 2.480e-1,
	1.111e+1, 1.10654, 2.800e-1,
	1.136e+1, 1.14779, 3.410e-1,
	1.163e+1, 1.20202, 3.790e-1,
	1.190e+1, 1.25825, 4.090e-1,

	1.220e+1, 1.32305, 4.220e-1,
	1.250e+1, 1.38574, 4.220e-1,
	1.282e+1, 1.44478, 4.030e-1,
	1.299e+1, 1.47170, 3.890e-1,
	1.316e+1, 1.49619, 3.740e-1,
	1.333e+1, 1.51652, 3.540e-1,
	1.351e+1, 1.53328, 3.350e-1,
	1.370e+1, 1.54900, 3.150e-1,
	1.389e+1, 1.56276, 2.940e-1,
	1.408e+1, 1.57317, 2.710e-1,

	1.429e+1, 1.58028, 2.460e-1,
	1.471e+1, 1.57918, 1.980e-1,
	1.515e+1, 1.56672, 1.640e-1,
	1.538e+1, 1.55869, 1.520e-1,
	1.563e+1, 1.55081, 1.420e-1,
	1.613e+1, 1.53807, 1.280e-1,
	1.639e+1, 1.53296, 1.250e-1,
	1.667e+1, 1.53220, 1.230e-1,
	1.695e+1, 1.53340, 1.160e-1,
	1.724e+1, 1.53289, 1.070e-1,

	1.818e+1, 1.51705, 7.900e-2,
	1.887e+1, 1.50097, 7.200e-2,
	1.923e+1, 1.49681, 7.600e-2,
	1.961e+1, 1.49928, 7.500e-2,
	2.000e+1, 1.50153, 6.700e-2,
	2.041e+1, 1.49856, 5.500e-2,
	2.083e+1, 1.49053, 4.500e-2,
	2.222e+1, 1.46070, 2.900e-2,
	2.260e+1, 1.45182, 2.750e-2,
	2.305e+1, 1.44223, 2.700e-2,

	2.360e+1, 1.43158, 2.730e-2,
	2.460e+1, 1.41385, 2.890e-2,
	2.500e+1, 1.40676, 3.000e-2,
	2.600e+1, 1.38955, 3.400e-2,
	2.857e+1, 1.34894, 5.300e-2,
	3.100e+1, 1.31039, 7.550e-2,
	3.333e+1, 1.26420, 1.060e-1,
	3.448e+1, 1.23656, 1.350e-1,
	3.564e+1, 1.21663, 1.761e-1,
	3.700e+1, 1.20233, 2.229e-1,

	3.824e+1, 1.19640, 2.746e-1,
	3.960e+1, 1.19969, 3.280e-1,
	4.114e+1, 1.20860, 3.906e-1,
	4.276e+1, 1.22173, 4.642e-1,
	4.358e+1, 1.24166, 5.247e-1,
	4.458e+1, 1.28175, 5.731e-1,
	4.550e+1, 1.32784, 6.362e-1,
	4.615e+1, 1.38657, 6.839e-1,
	4.671e+1, 1.46486, 7.091e-1,
	4.736e+1, 1.55323, 6.790e-1,

	4.800e+1, 1.60379, 6.250e-1,
	4.878e+1, 1.61877, 5.654e-1,
	5.003e+1, 1.62963, 5.433e-1,
	5.128e+1, 1.65712, 5.292e-1,
	5.275e+1, 1.69810, 5.070e-1,
	5.350e+1, 1.72065, 4.883e-1,
	5.424e+1, 1.74865, 4.707e-1,
	5.500e+1, 1.76736, 4.203e-1,
	5.574e+1, 1.76476, 3.771e-1,
	5.640e+1, 1.75011, 3.376e-1,

	5.700e+1, 1.72327, 3.056e-1,
	5.746e+1, 1.68490, 2.835e-1,
	5.840e+1, 1.62398, 3.170e-1,
	5.929e+1, 1.59596, 3.517e-1,
	6.000e+1, 1.58514, 3.902e-1,
	6.100e+1, 1.59917, 4.509e-1,
	6.125e+1, 1.61405, 4.671e-1,
	6.250e+1, 1.66625, 4.779e-1,
	6.378e+1, 1.70663, 4.890e-1,
	6.467e+1, 1.73713, 4.899e-1,

	6.558e+1, 1.76860, 4.873e-1,
	6.655e+1, 1.80343, 4.766e-1,
	6.760e+1, 1.83296, 4.508e-1,
	6.900e+1, 1.85682, 4.193e-1,
	7.053e+1, 1.87411, 3.880e-1,
	7.300e+1, 1.89110, 3.433e-1,
	7.500e+1, 1.89918, 3.118e-1,
	7.629e+1, 1.90432, 2.935e-1,
	8.000e+1, 1.90329, 2.350e-1,
	8.297e+1, 1.88744, 1.981e-1,

	8.500e+1, 1.87499, 1.865e-1,
	8.680e+1, 1.86702, 1.771e-1,
	9.080e+1, 1.85361, 1.620e-1,
	9.517e+1, 1.84250, 1.490e-1,
	1.000e+2, 1.83225, 1.390e-1,
	1.200e+2, 1.81914, 1.200e-1,
	1.500e+2, 1.82268, 9.620e-2,
	1.670e+2, 1.82961, 8.300e-2
};

/*
 * Table below is for wavelengths from 167um - 8.6m, which
 * have temperature dependence.
 * Columns are wavelength (um), real & imag parts at T = -60 C,
 * T = -20 C, T = -5 C, and T = -1 C
 */

static double	xt[(2*N_TEMP+1)*N_DXT] = {
	1.670e+2, 1.82961, 8.300e-2, 1.82961, 8.300e-2,
		1.82961, 8.300e-2, 1.82961, 8.300e-2,
	1.778e+2, 1.83258, 6.900e-2, 1.83258, 6.900e-2,
		1.83258, 6.900e-2, 1.83258, 6.900e-2,
	1.884e+2, 1.83149, 5.700e-2, 1.83149, 5.700e-2,
		1.83149, 5.700e-2, 1.83149, 5.700e-2,
	1.995e+2, 1.82748, 4.450e-2, 1.82748, 4.560e-2,
		1.82748, 4.560e-2, 1.82748, 4.560e-2,
	2.113e+2, 1.82224, 3.550e-2, 1.82224, 3.790e-2,
		1.82224, 3.790e-2, 1.82224, 3.790e-2,

	2.239e+2, 1.81718, 2.910e-2, 1.81718, 3.140e-2,
		1.81718, 3.140e-2, 1.81718, 3.140e-2,
	2.371e+2, 1.81204, 2.440e-2, 1.81204, 2.620e-2,
		1.81204, 2.620e-2, 1.81204, 2.620e-2,
	2.512e+2, 1.80704, 1.970e-2, 1.80704, 2.190e-2,
		1.80704, 2.240e-2, 1.80704, 2.240e-2,
	2.661e+2, 1.80250, 1.670e-2, 1.80250, 1.880e-2,
		1.80250, 1.960e-2, 1.80250, 1.960e-2,
	2.818e+2, 1.79834, 1.400e-2, 1.79834, 1.660e-2,
		1.79834, 1.760e-2, 1.79834, 1.760e-2,

	2.985e+2, 1.79482, 1.235e-2, 1.79482, 1.540e-2,
		1.79482, 1.665e-2, 1.79482, 1.665e-2,
	3.162e+2, 1.79214, 1.080e-2, 1.79214, 1.470e-2,
		1.79214, 1.600e-2, 1.79214, 1.620e-2,
	3.548e+2, 1.78843, 8.900e-3, 1.78843, 1.350e-2,
		1.78843, 1.500e-2, 1.78843, 1.550e-2,
	3.981e+2, 1.78601, 7.340e-3, 1.78601, 1.250e-2,
		1.78601, 1.400e-2, 1.78601, 1.470e-2,
	4.467e+2, 1.78434, 6.400e-3, 1.78434, 1.150e-2,
		1.78434, 1.310e-2, 1.78434, 1.390e-2,

	5.012e+2, 1.78322, 5.600e-3, 1.78322, 1.060e-2,
		1.78322, 1.230e-2, 1.78322, 1.320e-2,
	5.623e+2, 1.78248, 5.000e-3, 1.78248, 9.770e-3,
		1.78248, 1.150e-2, 1.78248, 1.250e-2,
	6.310e+2, 1.78201, 4.520e-3, 1.78201, 9.010e-3,
		1.78201, 1.080e-2, 1.78201, 1.180e-2,
	7.943e+2, 1.78150, 3.680e-3, 1.78160, 7.660e-3,
		1.78170, 9.460e-3, 1.78170, 1.060e-2,
	1.000e+3, 1.78070, 2.990e-3, 1.78140, 6.520e-3,
		1.78160, 8.290e-3, 1.78160, 9.540e-3,

	1.259e+3, 1.78010, 2.490e-3, 1.78160, 5.540e-3,
		1.78190, 7.270e-3, 1.78190, 8.560e-3,
	2.500e+3, 1.77890, 1.550e-3, 1.78220, 3.420e-3,
		1.78300, 4.910e-3, 1.78300, 6.210e-3,
	5.000e+3, 1.77790, 9.610e-4, 1.78310, 2.100e-3,
		1.78430, 3.300e-3, 1.78430, 4.490e-3,
	1.000e+4, 1.77730, 5.950e-4, 1.78380, 1.290e-3,
		1.78520, 2.220e-3, 1.78520, 3.240e-3,
	2.000e+4, 1.77720, 3.690e-4, 1.78390, 7.930e-4,
		1.78610, 1.490e-3, 1.78620, 2.340e-3,

	3.200e+4, 1.77720, 2.670e-4, 1.78400, 5.700e-4,
		1.78630, 1.140e-3, 1.78660, 1.880e-3,
	3.500e+4, 1.77720, 2.510e-4, 1.78400, 5.350e-4,
		1.78640, 1.060e-3, 1.78680, 1.740e-3,
	4.000e+4, 1.77720, 2.290e-4, 1.78400, 4.820e-4,
		1.78650, 9.480e-4, 1.78690, 1.500e-3,
	4.500e+4, 1.77720, 2.110e-4, 1.78400, 4.380e-4,
		1.78650, 8.500e-4, 1.78700, 1.320e-3,
	5.000e+4, 1.77720, 1.960e-4, 1.78400, 4.080e-4,
		1.78650, 7.660e-4, 1.78700, 1.160e-3,

	6.000e+4, 1.77720, 1.730e-4, 1.78390, 3.500e-4,
		1.78650, 6.300e-4, 1.78710, 8.800e-4,
	7.000e+4, 1.77720, 1.550e-4, 1.78380, 3.200e-4,
		1.78650, 5.200e-4, 1.78710, 6.950e-4,
	9.000e+4, 1.77720, 1.310e-4, 1.78370, 2.550e-4,
		1.78650, 3.840e-4, 1.78720, 4.640e-4,
	1.110e+5, 1.77720, 1.130e-4, 1.78370, 2.120e-4,
		1.78650, 2.960e-4, 1.78720, 3.400e-4,
	1.200e+5, 1.77720, 1.060e-4, 1.78370, 2.000e-4,
		1.78650, 2.700e-4, 1.78720, 3.110e-4,

	1.300e+5, 1.77720, 9.900e-5, 1.78370, 1.860e-4,
		1.78650, 2.520e-4, 1.78720, 2.940e-4,
	1.400e+5, 1.77720, 9.300e-5, 1.78370, 1.750e-4,
		1.78650, 2.440e-4, 1.78720, 2.790e-4,
	1.500e+5, 1.77720, 8.730e-5, 1.78370, 1.660e-4,
		1.78650, 2.360e-4, 1.78720, 2.700e-4,
	1.600e+5, 1.77720, 8.300e-5, 1.78370, 1.560e-4,
		1.78650, 2.300e-4, 1.78720, 2.640e-4,
	1.700e+5, 1.77720, 7.870e-5, 1.78370, 1.490e-4,
		1.78650, 2.280e-4, 1.78720, 2.580e-4,

	1.800e+5, 1.77720, 7.500e-5, 1.78370, 1.440e-4,
		1.78650, 2.250e-4, 1.78720, 2.520e-4,
	2.000e+5, 1.77720, 6.830e-5, 1.78370, 1.350e-4,
		1.78650, 2.200e-4, 1.78720, 2.490e-4,
	2.500e+5, 1.77720, 5.600e-5, 1.78370, 1.210e-4,
		1.78650, 2.160e-4, 1.78720, 2.540e-4,
	2.900e+5, 1.77720, 4.960e-5, 1.78370, 1.160e-4,
		1.78650, 2.170e-4, 1.78720, 2.640e-4,
	3.200e+5, 1.77720, 4.550e-5, 1.78370, 1.160e-4,
		1.78650, 2.200e-4, 1.78720, 2.740e-4,

	3.500e+5, 1.77720, 4.210e-5, 1.78370, 1.170e-4,
		1.78650, 2.250e-4, 1.78720, 2.890e-4,
	3.800e+5, 1.77720, 3.910e-5, 1.78370, 1.200e-4,
		1.78650, 2.320e-4, 1.78720, 3.050e-4,
	4.000e+5, 1.77720, 3.760e-5, 1.78370, 1.230e-4,
		1.78650, 2.390e-4, 1.78720, 3.150e-4,
	4.500e+5, 1.77720, 3.400e-5, 1.78370, 1.320e-4,
		1.78650, 2.600e-4, 1.78720, 3.460e-4,
	5.000e+5, 1.77720, 3.100e-5, 1.78370, 1.440e-4,
		1.78650, 2.860e-4, 1.78720, 3.820e-4,

	6.000e+5, 1.77720, 2.640e-5, 1.78370, 1.680e-4,
		1.78650, 3.560e-4, 1.78720, 4.620e-4,
	6.400e+5, 1.77720, 2.510e-5, 1.78370, 1.800e-4,
		1.78650, 3.830e-4, 1.78720, 5.000e-4,
	6.800e+5, 1.77720, 2.430e-5, 1.78370, 1.900e-4,
		1.78650, 4.150e-4, 1.78720, 5.500e-4,
	7.200e+5, 1.77720, 2.390e-5, 1.78370, 2.090e-4,
		1.78650, 4.450e-4, 1.78720, 5.950e-4,
	7.600e+5, 1.77720, 2.370e-5, 1.78370, 2.160e-4,
		1.78650, 4.760e-4, 1.78720, 6.470e-4,

	8.000e+5, 1.77720, 2.380e-5, 1.78370, 2.290e-4,
		1.78650, 5.080e-4, 1.78720, 6.920e-4,
	8.400e+5, 1.77720, 2.400e-5, 1.78370, 2.400e-4,
		1.78650, 5.400e-4, 1.78720, 7.420e-4,
	9.000e+5, 1.77720, 2.460e-5, 1.78370, 2.600e-4,
		1.78650, 5.860e-4, 1.78720, 8.200e-4,
	1.000e+6, 1.77720, 2.660e-5, 1.78370, 2.920e-4,
		1.78650, 6.780e-4, 1.78720, 9.700e-4,
	2.000e+6, 1.77720, 4.450e-5, 1.78370, 6.100e-4,
		1.78650, 1.280e-3, 1.78720, 1.950e-3,

	5.000e+6, 1.77720, 8.700e-5, 1.78400, 1.020e-3,
		1.78650, 3.550e-3, 1.78720, 5.780e-3,
	8.600e+6, 1.77800, 1.320e-4, 1.78450, 1.810e-3,
		1.78720, 5.600e-3, 1.78800, 9.700e-3
};
